#  Table zqeatm.tab  Thu 11:58:48 14-Mar-96
#      WAVELENGTH      throughput
            8000.     0.001212111
            8010.     0.001578279
            8020.     0.001756357
            8030.     0.002116894
            8040.     0.002382566
            8050.     0.002828275
            8060.     0.003360764
            8070.     0.003797955
            8080.     0.004501144
            8090.     0.005287436
            8100.     0.006334023
            8110.     0.007193204
            8120.     0.008397786
            8130.     0.009942861
            8140.      0.01147318
            8150.      0.01342457
            8160.      0.01579087
            8170.      0.01839319
            8180.      0.02131373
            8190.      0.02488965
            8200.       0.0290259
            8210.       0.0337138
            8220.       0.0391132
            8230.      0.04538067
            8240.      0.05291985
            8250.      0.06088027
            8260.      0.07032873
            8270.      0.08058373
            8280.      0.09212235
            8290.       0.1061444
            8300.       0.1214761
            8310.        0.138256
            8320.       0.1565394
            8330.       0.1766187
            8340.       0.1994941
            8350.       0.2228296
            8360.        0.249518
            8370.       0.2760666
            8380.       0.3060452
            8390.       0.3365356
            8400.       0.3683694
            8410.       0.4016718
            8420.       0.4341332
            8430.        0.469842
            8440.       0.5006216
            8450.       0.5352169
            8460.       0.5697678
            8470.       0.6030115
            8480.       0.6356252
            8490.       0.6672471
            8500.       0.6958534
            8510.       0.7232103
            8520.       0.7531023
            8530.       0.7771196
            8540.       0.8042379
            8550.       0.8259184
            8560.       0.8464634
            8570.        0.868822
            8580.       0.8867038
            8590.       0.8997649
            8600.       0.9151596
            8610.       0.8721845
            8620.       0.8892732
            8630.       0.9038731
            8640.       0.9177687
            8650.       0.9302334
            8660.       0.9418187
            8670.       0.9510193
            8680.       0.9600365
            8690.       0.9678929
            8700.       0.9740876
            8710.       0.9800629
            8720.       0.9842206
            8730.       0.9888791
            8740.       0.9918785
            8750.       0.9935608
            8760.       0.9953195
            8770.       0.9968409
            8780.       0.9973264
            8790.       0.9975884
            8800.       0.9975677
            8810.       0.9965432
            8820.       0.9948324
            8830.       0.9924465
            8840.       0.9906974
            8850.       0.9878088
            8860.       0.9847353
            8870.        1.000001
            8880.        0.991385
            8890.       0.9912119
            8900.       0.9875686
            8910.       0.9638126
            8920.       0.9004489
            8930.       0.9724939
            8940.       0.9668052
            8950.       0.9607756
            8960.       0.9511185
            8970.       0.9461042
            8980.       0.9421946
            8990.        0.175414
            9000.       0.9285513
            9010.       0.2894726
            9020.       0.8730556
            9030.       0.9011071
            9040.       0.9020838
            9050.       0.8378444
            9060.       0.8856542
            9070.       0.8496801
            9080.       0.8658902
            9090.       0.8204483
            9100.       0.8413907
            9110.       0.5233401
            9120.        0.777079
            9130.       0.8110913
            9140.       0.7867789
            9150.       0.8120182
            9160.       0.7955418
            9170.       0.7769269
            9180.       0.7728055
            9190.       0.7648303
            9200.       0.7681574
            9210.       0.7568254
            9220.       0.4913406
            9230.       0.7419127
            9240.       0.7251722
            9250.       0.7264187
            9260.       0.7199655
            9270.       0.6971001
            9280.       0.6108636
            9290.       0.6805629
            9300.       0.4479346
            9310.       0.6056948
            9320.       0.5253454
            9330.       0.4778248
            9340.       0.5398916
            9350.       0.5703669
            9360.     4.341010E-6
            9370.       0.4087574
            9380.      0.04528599
            9390.       0.3909544
            9400.       0.5910472
            9410.       0.5692533
            9420.       0.1767497
            9430.       0.2241944
            9440.       0.2244862
            9450.       0.5453151
            9460.       0.5023785
            9470.       0.5133455
            9480.       0.5201245
            9490.       0.3194392
            9500.     0.001578238
            9510.       0.4881788
            9520.      0.06733356
            9530.       0.3063957
            9540.       0.4786981
            9550.       0.4413993
            9560.      0.04342909
            9570.       0.4085539
            9580.       0.4496811
            9590.       0.4247813
            9600.       0.3835906
            9610.       0.4310398
            9620.        0.435041
            9630.       0.4256451
            9640.     5.629035E-6
            9650.       0.4151473
            9660.       0.2034267
            9670.       0.3520882
            9680.       0.4020253
            9690.       0.3980022
            9700.       0.3882187
            9710.       0.3860154
            9720.       0.3787886
            9730.       0.3732198
            9740.       0.3221415
            9750.       0.3612656
            9760.       0.3196207
            9770.       0.3512448
            9780.       0.3420852
            9790.       0.3169659
            9800.       0.3351165
            9810.       0.3301328
            9820.       0.3234978
            9830.       0.3190977
            9840.       0.3145533
            9850.       0.3082611
            9860.       0.2985459
            9870.       0.2975088
            9880.       0.2942593
            9890.       0.2893402
            9900.       0.2796142
            9910.       0.2797444
            9920.       0.2750506
            9930.       0.2678635
            9940.        0.265722
            9950.        0.261308
            9960.       0.2568077
            9970.       0.2464958
            9980.       0.2467358
            9990.       0.2437118
           10000.       0.2394276
           10010.       0.2355329
           10020.       0.2310035
           10030.       0.2280119
           10040.       0.2181671
           10050.       0.2205634
           10060.       0.2170714
           10070.       0.2135976
           10080.       0.2096096
           10090.       0.1957671
           10100.       0.2028928
           10110.       0.1990995
           10120.       0.1964875
           10130.       0.1932852
           10140.       0.1901454
           10150.       0.1869847
           10160.       0.1839679
           10170.       0.1810103
           10180.       0.1781008
           10190.       0.1751232
           10200.        0.172329
           10210.        0.169478
           10220.       0.1667212
           10230.       0.1640287
           10240.       0.1527089
           10250.       0.1586818
           10260.       0.1561239
           10270.       0.1535836
           10280.       0.1511197
           10290.         0.14864
           10300.       0.1460906
           10310.       0.1438081
           10320.       0.1415555
           10330.       0.1392102
           10340.       0.1369285
           10350.       0.1347084
           10360.       0.1325046
           10370.        0.130382
           10380.       0.1282248
           10390.       0.1262441
           10400.       0.1242275
           10410.       0.1221713
           10420.       0.1202565
           10430.       0.1182369
           10440.       0.1164189
           10450.       0.1145046
           10460.       0.1127219
           10470.         0.11095
           10480.       0.1092009
           10490.       0.1074035
           10500.       0.1057059
           10510.       0.1037683
           10520.       0.1019728
           10530.       0.1001316
           10540.      0.09829584
           10550.      0.09659196
           10560.      0.09485957
           10570.      0.09317917
           10580.      0.09151401
           10590.      0.08985945
           10600.      0.08822576
           10610.      0.08667943
           10620.       0.0851049
           10630.      0.08348533
           10640.      0.08199849
           10650.      0.08047608
           10660.      0.07903044
           10670.      0.07756919
           10680.      0.07606815
           10690.      0.07453992
           10700.      0.07335151
           10710.      0.07196389
           10720.      0.07057659
           10730.      0.06969361
           10740.      0.06798955
           10750.      0.06671908
           10760.      0.06547727
           10770.       0.0642494
           10780.      0.06305286
           10790.      0.06186987
           10800.      0.06060573
           10810.      0.05957777
           10820.      0.05840371
           10830.      0.05732961
           10840.      0.05626147
           10850.      0.05514158
           10860.      0.05268026
           10870.      0.05306184
           10880.       0.0520664
           10890.      0.05083508
           10900.      0.05010183
           10910.      0.04916628
           10920.      0.04767757
           10930.      0.04680742
           10940.      0.04633425
           10950.      0.04473143
           10960.      0.02838708
           10970.      0.04372893
           10980.       0.0362537
           10990.      0.03640452
           11000.      0.04054195
           11010.      0.02677857
           11020.      0.03956136
           11030.       0.0377615
           11040.      0.03364881
           11050.      0.03700882
           11060.      0.03617949
           11070.       0.0359101
           11080.      0.01777133
           11090.      0.03435159
           11100.      0.03379027
           11110.      0.03257859
           11120.      0.03245888
           11130.    -0.001408335
           11140.      0.02797809
           11150.      0.02736438
           11160.      0.02729587
           11170.      0.02012109
           11180.      0.02682722
           11190.     0.007195573
           11200.     3.366379E-8
           11210.      0.02416465
           11220.     0.001448425
           11230.      0.02099448
           11240.       0.0197239
           11250.      0.01653482
           11260.      0.02018492
           11270.       0.0225554
           11280.      0.01105318
           11290.     9.136310E-7
           11300.      0.01739415
           11310.      0.02113806
           11320.      0.01896432
           11330.     0.004930238
           11340.      0.01321028
           11350.     0.002477222
           11360.     0.001293837
           11370.      0.01749373
           11380.      0.01829283
           11390.      0.01831297
           11400.     0.008676325
           11410.      0.01027119
           11420.      0.01663378
           11430.      0.01557101
           11440.      0.01393557
           11450.     2.330604E-4
           11460.     0.009159395
           11470.     0.008138812
           11480.      0.01443887
           11490.      0.01271331
           11500.      0.01011638

